File: Praktikum_4/V44/V44/Messdaten/Diffus.UXD
; C:\DIFFDAT1\Praktikum\V44_Ollesch_Annuss\Diffus.raw(Diffrac Plus V1.01 file) converted by XCH V1.0
_FILEVERSION=2
_SITE='Deutschland'
_USER='Administrator'
_GONIOMETER_CODE=4885
; D8 Theta/Theta; Special
_SAMPLE_CHANGER_CODE=0
_ATTACHMENTS_CODE=0
_GONIOMETER_RADIUS=350
_FIXED_DIVSLIT=0.600000
_FIXED_SAMPLESLIT=0.000000
_FIXED_DETSLIT=11.66
_MONOCHROMATOR=0
; None
_THIN_FILM='N'
_BETA_FILTER='Y'
_FIXED_ANTISLIT=8.340000
_ANALYZER_CODE=0
; None
_DATEMEASURED='29-Jan-2024 11:58:36'
_WL_UNIT='A'
_WL1=1.540600
_WL2=1.544390
_WL3=1.392220
_WLRATIO=0.500000
_ANODE='Cu'
; (Data for Range number 1)
_DRIVE='THETA'
_STEPTIME=5.000660
_STEPSIZE=0.005000
_STEPMODE='C'
_START=0.000000
_THETA=0.000000
_2THETA=0.100000
_KHI=0.000000
_PHI=92.46
_X=1.546000
_Y=-0.300000
_Z=0.226000
_DIVERGENCE=0.000000
_ANTISCATTER=0.000000
_DETECTOR=5
_DETECTORSLIT='unkn'
_AUX1=0.000000
_AUX2=0.000000
_AUX3=0.000000
_TIMESTARTED=2.000000
_TEMP_RATE=-1.000000
_TEMP_DELAY=-1.000000
_KV=40
_MA=35
_RANGE_WL=1.540600
_3DPLANE=0
_GONIOMETER=0.097500
_PSDCHANNEL0=0
_2THETACOUNTS
   0.0000    634609
   0.0100    435367
   0.0200    297775
   0.0300    237637
   0.0400    216604
   0.0500    153197
   0.0600    105313
   0.0700    107285
   0.0800    115230
   0.0900    109180
   0.1000    106004
   0.1100     87311
   0.1200     74100
   0.1300     61166
   0.1400     44107
   0.1500     35535
   0.1600     30395
   0.1700     26447
   0.1800     22290
   0.1900     18495
   0.2000     14822
   0.2100     11030
   0.2200      7970
   0.2300      5753
   0.2400      4233
   0.2500      3137
   0.2600      2338
   0.2700      2157
   0.2800      1958
   0.2900      1766
   0.3000      1583
   0.3100      1517
   0.3200      1430
   0.3300      1444
   0.3400      1375
   0.3500      1390
   0.3600      1270
   0.3700      1328
   0.3800      1259
   0.3900      1284
   0.4000      1245
   0.4100      1282
   0.4200      1303
   0.4300      1258
   0.4400      1247
   0.4500      1236
   0.4600      1227
   0.4700      1137
   0.4800      1114
   0.4900      1127
   0.5000      1020
   0.5100      1085
   0.5200      1090
   0.5300       932
   0.5400       909
   0.5500       932
   0.5600       931
   0.5700       984
   0.5800      1158
   0.5900      1320
   0.6000      1321
   0.6100      1148
   0.6200       915
   0.6300       421
   0.6400       127
   0.6500        62
   0.6600        52
   0.6700        62
   0.6800        63
   0.6900        57
   0.7000        40
   0.7100        49
   0.7200        41
   0.7300        33
   0.7400        47
   0.7500        38
   0.7600        42
   0.7700        33
   0.7800        28
   0.7900        27
   0.8000        27
   0.8100        38
   0.8200        36
   0.8300        24
   0.8400        27
   0.8500        23
   0.8600        19
   0.8700        30
   0.8800        23
   0.8900        22
   0.9000        16
   0.9100        21
   0.9200        17
   0.9300        24
   0.9400        15
   0.9500        20
   0.9600        15
   0.9700        10
   0.9800        14
   0.9900         9
   1.0000        11
   1.0100        11
   1.0200        14
   1.0300        20
   1.0400        12
   1.0500        18
   1.0600         7
   1.0700         9
   1.0800        10
   1.0900        12
   1.1000         3
   1.1100        11
   1.1200        20
   1.1300         9
   1.1400         7
   1.1500        11
   1.1600         9
   1.1700         6
   1.1800         4
   1.1900        10
   1.2000        12
   1.2100         7
   1.2200         3
   1.2300         4
   1.2400         4
   1.2500         6
   1.2600         5
   1.2700         5
   1.2800         5
   1.2900         3
   1.3000         2
   1.3100         3
   1.3200         5
   1.3300         3
   1.3400         6
   1.3500         1
   1.3600         4
   1.3700         4
   1.3800         2
   1.3900         4
   1.4000         0
   1.4100         4
   1.4200         4
   1.4300         1
   1.4400         4
   1.4500         6
   1.4600         1
   1.4700         5
   1.4800         6
   1.4900         4
   1.5000         1
   1.5100         1
   1.5200         1
   1.5300         5
   1.5400         3
   1.5500         2
   1.5600         1
   1.5700         3
   1.5800         1
   1.5900         1
   1.6000         1
   1.6100         5
   1.6200         2
   1.6300         2
   1.6400         5
   1.6500         2
   1.6600         1
   1.6700         2
   1.6800         0
   1.6900         2
   1.7000         1
   1.7100         2
   1.7200         4
   1.7300         1
   1.7400         1
   1.7500         4
   1.7600         1
   1.7700         0
   1.7800         3
   1.7900         0
   1.8000         1
   1.8100         0
   1.8200         2
   1.8300         4
   1.8400         2
   1.8500         2
   1.8600         1
   1.8700         1
   1.8800         2
   1.8900         0
   1.9000         2
   1.9100         0
   1.9200         2
   1.9300         2
   1.9400         3
   1.9500         2
   1.9600         0
   1.9700         3
   1.9800         1
   1.9900         1
   2.0000         1
   2.0100         2
   2.0200         4
   2.0300         2
   2.0400         2
   2.0500         0
   2.0600         0
   2.0700         0
   2.0800         0
   2.0900         0
   2.1000         1
   2.1100         3
   2.1200         1
   2.1300         3
   2.1400         2
   2.1500         2
   2.1600         1
   2.1700         1
   2.1800         1
   2.1900         0
   2.2000         1
   2.2100         4
   2.2200         0
   2.2300         3
   2.2400         1
   2.2500         0
   2.2600         1
   2.2700         0
   2.2800         2
   2.2900         1
   2.3000         0
   2.3100         3
   2.3200         4
   2.3300         1
   2.3400         0
   2.3500         2
   2.3600         0
   2.3700         0
   2.3800         2
   2.3900         1
   2.4000         0
   2.4100         0
   2.4200         0
   2.4300         0
   2.4400         2
   2.4500         1
   2.4600         0
   2.4700         0
   2.4800         2
   2.4900         0
   2.5000         3