File: Praktikum_4/V44/V44/Messdaten/Omega2Theta.UXD
; C:\DIFFDAT1\Praktikum\V44_Ollesch_Annuss\Omega2Theta.raw(Diffrac Plus V1.01 file) converted by XCH V1.0
_FILEVERSION=2
_SITE='Deutschland'
_USER='Administrator'
_GONIOMETER_CODE=4885
; D8 Theta/Theta; Special
_SAMPLE_CHANGER_CODE=0
_ATTACHMENTS_CODE=0
_GONIOMETER_RADIUS=350
_FIXED_DIVSLIT=0.600000
_FIXED_SAMPLESLIT=0.000000
_FIXED_DETSLIT=11.66
_MONOCHROMATOR=0
; None
_THIN_FILM='N'
_BETA_FILTER='Y'
_FIXED_ANTISLIT=8.340000
_ANALYZER_CODE=0
; None
_DATEMEASURED='29-Jan-2024 11:15:14'
_WL_UNIT='A'
_WL1=1.540600
_WL2=1.544390
_WL3=1.392220
_WLRATIO=0.500000
_ANODE='Cu'
; (Data for Range number 1)
_DRIVE='THETA'
_STEPTIME=5.000660
_STEPSIZE=0.005000
_STEPMODE='C'
_START=0.000000
_THETA=0.000000
_2THETA=0.000000
_KHI=0.000000
_PHI=92.46
_X=1.546000
_Y=-0.300000
_Z=0.226000
_DIVERGENCE=0.000000
_ANTISCATTER=0.000000
_DETECTOR=5
_DETECTORSLIT='unkn'
_AUX1=0.000000
_AUX2=0.000000
_AUX3=0.000000
_TIMESTARTED=2.000000
_TEMP_RATE=-1.000000
_TEMP_DELAY=-1.000000
_KV=40
_MA=35
_RANGE_WL=1.540600
_3DPLANE=0
_GONIOMETER=-0.002500
_PSDCHANNEL0=0
_2THETACOUNTS
   0.0000   2498310
   0.0100   4515170
   0.0200   4574290
   0.0300   2553920
   0.0400   1456670
   0.0500   1153110
   0.0600   1038490
   0.0700   1014830
   0.0800   1076820
   0.0900   1170800
   0.1000   1225690
   0.1100   1285140
   0.1200   1389680
   0.1300   1506290
   0.1400   1626770
   0.1500   1731560
   0.1600   1780670
   0.1700   1815510
   0.1800   1832780
   0.1900   1930880
   0.2000   2009560
   0.2100   2016880
   0.2200   1825980
   0.2300   1408630
   0.2400    882477
   0.2500    463382
   0.2600    264125
   0.2700    222000
   0.2800    177065
   0.2900    111716
   0.3000     77391
   0.3100     80702
   0.3200     80604
   0.3300     58252
   0.3400     37228
   0.3500     34513
   0.3600     40984
   0.3700     38240
   0.3800     26593
   0.3900     18397
   0.4000     19406
   0.4100     23227
   0.4200     21044
   0.4300     14588
   0.4400     10665
   0.4500     11953
   0.4600     14205
   0.4700     12997
   0.4800      9215
   0.4900      6853
   0.5000      7521
   0.5100      9160
   0.5200      8671
   0.5300      6317
   0.5400      4780
   0.5500      5019
   0.5600      6240
   0.5700      6057
   0.5800      4643
   0.5900      3340
   0.6000      3508
   0.6100      4270
   0.6200      4582
   0.6300      3720
   0.6400      2946
   0.6500      2821
   0.6600      3234
   0.6700      3310
   0.6800      2431
   0.6900      1417
   0.7000      1118
   0.7100      1375
   0.7200      1744
   0.7300      1538
   0.7400      1067
   0.7500       770
   0.7600       872
   0.7700      1223
   0.7800      1106
   0.7900       808
   0.8000       590
   0.8100       578
   0.8200       741
   0.8300       802
   0.8400       676
   0.8500       490
   0.8600       407
   0.8700       548
   0.8800       619
   0.8900       509
   0.9000       379
   0.9100       280
   0.9200       361
   0.9300       434
   0.9400       383
   0.9500       299
   0.9600       219
   0.9700       244
   0.9800       300
   0.9900       296
   1.0000       223
   1.0100       189
   1.0200       156
   1.0300       213
   1.0400       226
   1.0500       201
   1.0600       165
   1.0700       125
   1.0800       132
   1.0900       179
   1.1000       170
   1.1100       134
   1.1200        98
   1.1300       106
   1.1400       131
   1.1500       130
   1.1600        95
   1.1700        77
   1.1800        79
   1.1900        95
   1.2000        94
   1.2100        88
   1.2200        61
   1.2300        49
   1.2400        59
   1.2500        75
   1.2600        67
   1.2700        58
   1.2800        49
   1.2900        38
   1.3000        50
   1.3100        54
   1.3200        37
   1.3300        41
   1.3400        27
   1.3500        54
   1.3600        46
   1.3700        36
   1.3800        26
   1.3900        26
   1.4000        24
   1.4100        37
   1.4200        21
   1.4300        24
   1.4400        18
   1.4500        14
   1.4600        26
   1.4700        30
   1.4800        15
   1.4900        16
   1.5000        11
   1.5100        14
   1.5200        16
   1.5300        22
   1.5400        17
   1.5500         9
   1.5600         6
   1.5700        12
   1.5800         8
   1.5900         9
   1.6000         9
   1.6100        12
   1.6200        12
   1.6300         9
   1.6400        11
   1.6500         9
   1.6600         8
   1.6700         9
   1.6800        13
   1.6900        10
   1.7000         8
   1.7100         5
   1.7200         5
   1.7300        10
   1.7400         3
   1.7500         7
   1.7600         7
   1.7700         7
   1.7800         4
   1.7900         9
   1.8000         2
   1.8100         5
   1.8200        11
   1.8300         9
   1.8400         6
   1.8500         5
   1.8600         3
   1.8700         2
   1.8800         2
   1.8900         3
   1.9000         4
   1.9100         6
   1.9200         3
   1.9300         3
   1.9400         3
   1.9500         3
   1.9600         3
   1.9700         2
   1.9800         1
   1.9900         5
   2.0000         3
   2.0100         5
   2.0200         2
   2.0300         3
   2.0400         0
   2.0500         5
   2.0600         3
   2.0700         4
   2.0800         2
   2.0900         2
   2.1000         4
   2.1100         2
   2.1200         6
   2.1300         2
   2.1400         3
   2.1500         1
   2.1600         0
   2.1700         2
   2.1800         1
   2.1900         1
   2.2000         2
   2.2100         0
   2.2200         4
   2.2300         0
   2.2400         2
   2.2500         3
   2.2600         1
   2.2700         3
   2.2800         4
   2.2900         2
   2.3000         2
   2.3100         2
   2.3200         1
   2.3300         1
   2.3400         1
   2.3500         1
   2.3600         2
   2.3700         2
   2.3800         0
   2.3900         2
   2.4000         0
   2.4100         2
   2.4200         1
   2.4300         2
   2.4400         3
   2.4500         2
   2.4600         4
   2.4700         0
   2.4800         4
   2.4900         0
   2.5000         3