File: Praktikum_4/V44/V44/Messdaten/RockingCurve2_1.UXD
; C:\DIFFDAT1\Praktikum\V44_Ollesch_Annuss\RockingCurve2_1.raw(Diffrac Plus V1.01 file) converted by XCH V1.0
_FILEVERSION=2
_SITE='Deutschland'
_USER='Administrator'
_GONIOMETER_CODE=4885
; D8 Theta/Theta; Special
_SAMPLE_CHANGER_CODE=0
_ATTACHMENTS_CODE=0
_GONIOMETER_RADIUS=350
_FIXED_DIVSLIT=0.600000
_FIXED_SAMPLESLIT=0.000000
_FIXED_DETSLIT=11.66
_MONOCHROMATOR=0
; None
_THIN_FILM='N'
_BETA_FILTER='Y'
_FIXED_ANTISLIT=8.340000
_ANALYZER_CODE=0
; None
_DATEMEASURED='29-Jan-2024 10:17:05'
_WL_UNIT='A'
_WL1=1.540600
_WL2=1.544390
_WL3=1.392220
_WLRATIO=0.500000
_ANODE='Cu'
; (Data for Range number 1)
_DRIVE='THETA'
_STEPTIME=1.000000
_STEPSIZE=0.005000
_STEPMODE='S'
_START=0.000000
_THETA=0.000000
_2THETA=0.300000
_KHI=0.000000
_PHI=92.46
_X=1.546000
_Y=0.000000
_Z=0.223000
_DIVERGENCE=0.000000
_ANTISCATTER=0.000000
_DETECTOR=5
_DETECTORSLIT='unkn'
_AUX1=0.000000
_AUX2=0.000000
_AUX3=0.000000
_TIMESTARTED=2.000000
_TEMP_RATE=-1.000000
_TEMP_DELAY=-1.000000
_KV=40
_MA=35
_RANGE_WL=1.540600
_3DPLANE=0
_GONIOMETER=0.300000
_PSDCHANNEL0=0
_2THETACOUNTS
   0.0000    152583
   0.0050    104215
   0.0100     52138
   0.0150     34088
   0.0200     28266
   0.0250     24699
   0.0300     21508
   0.0350     17791
   0.0400     13990
   0.0450     11064
   0.0500      8329
   0.0550      6714
   0.0600      5772
   0.0650      5039
   0.0700      4438
   0.0750      3908
   0.0800      3727
   0.0850      3579
   0.0900      3542
   0.0950      3326
   0.1000      3230
   0.1050      3197
   0.1100      3064
   0.1150      3050
   0.1200      2929
   0.1250      2914
   0.1300      2997
   0.1350      2971
   0.1400      2903
   0.1450      2832
   0.1500      2852
   0.1550      2918
   0.1600      2883
   0.1650      2886
   0.1700      2877
   0.1750      2937
   0.1800      2813
   0.1850      2897
   0.1900      2944
   0.1950      2893
   0.2000      2865
   0.2050      2876
   0.2100      2938
   0.2150      3023
   0.2200      2921
   0.2250      2921
   0.2300      2969
   0.2350      2955
   0.2400      2935
   0.2450      2990
   0.2500      2861
   0.2550      2851
   0.2600      2943
   0.2650      2952
   0.2700      2896
   0.2750      2872
   0.2800      2895
   0.2850      2807
   0.2900      2983
   0.2950      3002
   0.3000      2965