File: Praktikum_4/V44/V44/Messdaten/Z1Scan.UXD
; C:\DIFFDAT1\Praktikum\V44_Ollesch_Annuss\Z1Scan.raw(Diffrac Plus V1.01 file) converted by XCH V1.0
_FILEVERSION=2
_SITE='Deutschland'
_USER='Administrator'
_GONIOMETER_CODE=4885
; D8 Theta/Theta; Special
_SAMPLE_CHANGER_CODE=0
_ATTACHMENTS_CODE=0
_GONIOMETER_RADIUS=350
_FIXED_DIVSLIT=0.600000
_FIXED_SAMPLESLIT=0.000000
_FIXED_DETSLIT=11.66
_MONOCHROMATOR=0
; None
_THIN_FILM='N'
_BETA_FILTER='Y'
_FIXED_ANTISLIT=8.340000
_ANALYZER_CODE=0
; None
_DATEMEASURED='29-Jan-2024 09:47:12'
_WL_UNIT='A'
_WL1=1.540600
_WL2=1.544390
_WL3=1.392220
_WLRATIO=0.500000
_ANODE='Cu'
; (Data for Range number 1)
_DRIVE='Z'
_STEPTIME=1.000000
_STEPSIZE=0.020000
_STEPMODE='S'
_START=-1.000000
_THETA=0.000000
_2THETA=0.000000
_KHI=0.000000
_PHI=92.46
_X=0.000000
_Y=0.000000
_Z=-1.000000
_DIVERGENCE=0.000000
_ANTISCATTER=0.000000
_DETECTOR=5
_DETECTORSLIT='unkn'
_AUX1=0.000000
_AUX2=0.000000
_AUX3=0.000000
_TIMESTARTED=4.000000
_TEMP_RATE=-1.000000
_TEMP_DELAY=-1.000000
_KV=40
_MA=35
_RANGE_WL=1.540600
_3DPLANE=0
_GONIOMETER=0.000000
_PSDCHANNEL0=0
_2THETACOUNTS
  -1.0000   1237750
  -0.9800   1245430
  -0.9600   1238010
  -0.9400   1238990
  -0.9200   1243590
  -0.9000   1245100
  -0.8800   1241480
  -0.8600   1243260
  -0.8400   1243070
  -0.8200   1244420
  -0.8000   1239600
  -0.7800   1243820
  -0.7600   1240850
  -0.7400   1240790
  -0.7200   1246570
  -0.7000   1246260
  -0.6800   1235490
  -0.6600   1241580
  -0.6400   1237680
  -0.6200   1239450
  -0.6000   1247690
  -0.5800   1245890
  -0.5600   1238090
  -0.5400   1237690
  -0.5200   1241430
  -0.5000   1238610
  -0.4800   1239300
  -0.4600   1242760
  -0.4400   1236180
  -0.4200   1243330
  -0.4000   1243720
  -0.3800   1240870
  -0.3600   1240640
  -0.3400   1238250
  -0.3200   1237550
  -0.3000   1242910
  -0.2800   1242430
  -0.2600   1238270
  -0.2400   1239070
  -0.2200   1238740
  -0.2000   1236590
  -0.1800   1235870
  -0.1600   1240720
  -0.1400   1240160
  -0.1200   1239400
  -0.1000   1240360
  -0.0800   1236250
  -0.0600   1236760
  -0.0400   1234990
  -0.0200   1236170
   0.0000   1237570
   0.0200   1241260
   0.0400   1242610
   0.0600   1247430
   0.0800   1259030
   0.1000   1260600
   0.1200   1248200
   0.1400   1190250
   0.1600   1068290
   0.1800    901019
   0.2000    731185
   0.2200    553972
   0.2400    376245
   0.2600    221382
   0.2800     97116
   0.3000     26785
   0.3200       508
   0.3400        86
   0.3600        46
   0.3800        32
   0.4000        25
   0.4200        25
   0.4400        28
   0.4600        18
   0.4800        21
   0.5000        32
   0.5200        53
   0.5400        86
   0.5600       113
   0.5800       167
   0.6000       231
   0.6200       333
   0.6400       578
   0.6600       854
   0.6800      1284
   0.7000      2201
   0.7200      4303
   0.7400      8011
   0.7600     11939
   0.7800     15659
   0.8000     35027
   0.8200     73759
   0.8400    112836
   0.8600    139850
   0.8800    142427
   0.9000    135926
   0.9200    125778
   0.9400    111119
   0.9600     93207
   0.9800     66496
   1.0000     30039